# E (eV)   ldos(E)   pdos(E)    pdos(E)    pdos(E)   
 -16.392  0.360E-06  0.342E-06  0.910E-08  0.914E-08
 -16.292  0.302E-05  0.285E-05  0.855E-07  0.858E-07
 -16.192  0.196E-04  0.183E-04  0.625E-06  0.627E-06
 -16.092  0.976E-04  0.904E-04  0.357E-05  0.358E-05
 -15.992  0.377E-03  0.345E-03  0.160E-04  0.161E-04
 -15.892  0.113E-02  0.102E-02  0.569E-04  0.571E-04
 -15.792  0.267E-02  0.235E-02  0.162E-03  0.162E-03
 -15.692  0.500E-02  0.425E-02  0.372E-03  0.374E-03
 -15.592  0.756E-02  0.614E-02  0.707E-03  0.710E-03
 -15.492  0.951E-02  0.723E-02  0.114E-02  0.114E-02
 -15.392  0.104E-01  0.720E-02  0.158E-02  0.159E-02
 -15.292  0.103E-01  0.638E-02  0.198E-02  0.199E-02
 -15.192  0.996E-02  0.537E-02  0.229E-02  0.230E-02
 -15.092  0.957E-02  0.453E-02  0.252E-02  0.252E-02
 -14.992  0.931E-02  0.395E-02  0.268E-02  0.268E-02
 -14.892  0.915E-02  0.357E-02  0.279E-02  0.279E-02
 -14.792  0.907E-02  0.332E-02  0.288E-02  0.288E-02
 -14.692  0.910E-02  0.320E-02  0.295E-02  0.295E-02
 -14.592  0.936E-02  0.324E-02  0.306E-02  0.306E-02
 -14.492  0.100E-01  0.353E-02  0.325E-02  0.324E-02
 -14.392  0.112E-01  0.410E-02  0.355E-02  0.355E-02
 -14.292  0.128E-01  0.492E-02  0.395E-02  0.395E-02
 -14.192  0.146E-01  0.584E-02  0.439E-02  0.439E-02
 -14.092  0.163E-01  0.673E-02  0.476E-02  0.476E-02
 -13.992  0.176E-01  0.755E-02  0.501E-02  0.502E-02
 -13.892  0.187E-01  0.839E-02  0.513E-02  0.515E-02
 -13.792  0.197E-01  0.946E-02  0.511E-02  0.514E-02
 -13.692  0.208E-01  0.109E-01  0.497E-02  0.502E-02
 -13.592  0.218E-01  0.124E-01  0.468E-02  0.478E-02
 -13.492  0.221E-01  0.135E-01  0.424E-02  0.441E-02
 -13.392  0.210E-01  0.135E-01  0.366E-02  0.389E-02
 -13.292  0.182E-01  0.120E-01  0.297E-02  0.324E-02
 -13.192  0.140E-01  0.925E-02  0.224E-02  0.253E-02
 -13.092  0.939E-02  0.605E-02  0.154E-02  0.180E-02
 -12.992  0.539E-02  0.329E-02  0.938E-03  0.116E-02
 -12.892  0.262E-02  0.148E-02  0.495E-03  0.647E-03
 -12.792  0.108E-02  0.550E-03  0.220E-03  0.307E-03
 -12.692  0.371E-03  0.169E-03  0.814E-04  0.121E-03
 -12.592  0.106E-03  0.430E-04  0.246E-04  0.386E-04
 -12.492  0.250E-04  0.913E-05  0.598E-05  0.988E-05
 -12.392  0.477E-05  0.160E-05  0.116E-05  0.200E-05
 -12.292  0.728E-06  0.230E-06  0.179E-06  0.318E-06
 -12.192  0.879E-07  0.267E-07  0.217E-07  0.395E-07
 -12.092  0.833E-08  0.246E-08  0.206E-08  0.381E-08
 -11.992  0.615E-09  0.178E-09  0.152E-09  0.285E-09
 -11.892  0.353E-10  0.101E-10  0.868E-11  0.165E-10
 -11.792  0.156E-11  0.443E-12  0.384E-12  0.736E-12
 -11.692  0.533E-13  0.150E-13  0.131E-13  0.253E-13
 -11.592  0.133E-14  0.369E-15  0.321E-15  0.637E-15
 -11.492  0.000E+00  0.000E+00  0.000E+00  0.000E+00
 -11.392  0.000E+00  0.000E+00  0.000E+00  0.000E+00
 -11.292  0.000E+00  0.000E+00  0.000E+00  0.000E+00
 -11.192  0.000E+00  0.000E+00  0.000E+00  0.000E+00
 -11.092  0.000E+00  0.000E+00  0.000E+00  0.000E+00
 -10.992  0.000E+00  0.000E+00  0.000E+00  0.000E+00
 -10.892  0.000E+00  0.000E+00  0.000E+00  0.000E+00
 -10.792  0.000E+00  0.000E+00  0.000E+00  0.000E+00
 -10.692  0.000E+00  0.000E+00  0.000E+00  0.000E+00
 -10.592  0.000E+00  0.000E+00  0.000E+00  0.000E+00
 -10.492  0.000E+00  0.000E+00  0.000E+00  0.000E+00
 -10.392  0.000E+00  0.000E+00  0.000E+00  0.000E+00
 -10.292  0.000E+00  0.000E+00  0.000E+00  0.000E+00
 -10.192  0.000E+00  0.000E+00  0.000E+00  0.000E+00
 -10.092  0.000E+00  0.000E+00  0.000E+00  0.000E+00
  -9.992  0.000E+00  0.000E+00  0.000E+00  0.000E+00
  -9.892  0.000E+00  0.000E+00  0.000E+00  0.000E+00
  -9.792  0.000E+00  0.000E+00  0.000E+00  0.000E+00
  -9.692  0.000E+00  0.000E+00  0.000E+00  0.000E+00
  -9.592  0.000E+00  0.000E+00  0.000E+00  0.000E+00
  -9.492  0.000E+00  0.000E+00  0.000E+00  0.000E+00
  -9.392  0.000E+00  0.000E+00  0.000E+00  0.000E+00
  -9.292  0.000E+00  0.000E+00  0.000E+00  0.000E+00
  -9.192  0.000E+00  0.000E+00  0.000E+00  0.000E+00
  -9.092  0.000E+00  0.000E+00  0.000E+00  0.000E+00
  -8.992  0.000E+00  0.000E+00  0.000E+00  0.000E+00
  -8.892  0.000E+00  0.000E+00  0.000E+00  0.000E+00
  -8.792  0.000E+00  0.000E+00  0.000E+00  0.000E+00
  -8.692  0.999E-13  0.396E-15  0.746E-13  0.249E-13
  -8.592  0.442E-11  0.175E-13  0.330E-11  0.110E-11
  -8.492  0.140E-09  0.554E-12  0.104E-09  0.348E-10
  -8.392  0.337E-08  0.134E-10  0.252E-08  0.840E-09
  -8.292  0.625E-07  0.248E-09  0.467E-07  0.156E-07
  -8.192  0.886E-06  0.351E-08  0.662E-06  0.221E-06
  -8.092  0.965E-05  0.382E-07  0.721E-05  0.240E-05
  -7.992  0.807E-04  0.319E-06  0.603E-04  0.201E-04
  -7.892  0.519E-03  0.205E-05  0.388E-03  0.129E-03
  -7.792  0.257E-02  0.102E-04  0.192E-02  0.640E-03
  -7.692  0.986E-02  0.390E-04  0.736E-02  0.245E-02
  -7.592  0.293E-01  0.116E-03  0.219E-01  0.731E-02
  -7.492  0.682E-01  0.270E-03  0.509E-01  0.170E-01
  -7.392  0.126E+00  0.497E-03  0.935E-01  0.315E-01
  -7.292  0.187E+00  0.744E-03  0.138E+00  0.475E-01
  -7.192  0.234E+00  0.949E-03  0.171E+00  0.617E-01
  -7.092  0.264E+00  0.111E-02  0.187E+00  0.757E-01
  -6.992  0.294E+00  0.130E-02  0.197E+00  0.961E-01
  -6.892  0.343E+00  0.155E-02  0.213E+00  0.129E+00
  -6.792  0.414E+00  0.178E-02  0.239E+00  0.173E+00
  -6.692  0.493E+00  0.190E-02  0.271E+00  0.220E+00
  -6.592  0.561E+00  0.186E-02  0.301E+00  0.258E+00
  -6.492  0.598E+00  0.172E-02  0.323E+00  0.274E+00
  -6.392  0.587E+00  0.155E-02  0.323E+00  0.262E+00
  -6.292  0.527E+00  0.140E-02  0.297E+00  0.229E+00
  -6.192  0.437E+00  0.131E-02  0.250E+00  0.186E+00
  -6.092  0.344E+00  0.138E-02  0.197E+00  0.146E+00
  -5.992  0.268E+00  0.205E-02  0.151E+00  0.115E+00
  -5.892  0.217E+00  0.505E-02  0.119E+00  0.933E-01
  -5.792  0.202E+00  0.153E-01  0.103E+00  0.837E-01
  -5.692  0.228E+00  0.416E-01  0.101E+00  0.854E-01
  -5.592  0.297E+00  0.925E-01  0.110E+00  0.947E-01
  -5.492  0.393E+00  0.164E+00  0.123E+00  0.106E+00
  -5.392  0.484E+00  0.233E+00  0.136E+00  0.115E+00
  -5.292  0.535E+00  0.269E+00  0.144E+00  0.121E+00
  -5.192  0.540E+00  0.267E+00  0.148E+00  0.125E+00
  -5.092  0.526E+00  0.249E+00  0.147E+00  0.130E+00
  -4.992  0.527E+00  0.243E+00  0.146E+00  0.138E+00
  -4.892  0.556E+00  0.253E+00  0.152E+00  0.151E+00
  -4.792  0.614E+00  0.263E+00  0.173E+00  0.177E+00
  -4.692  0.702E+00  0.265E+00  0.213E+00  0.223E+00
  -4.592  0.822E+00  0.269E+00  0.265E+00  0.289E+00
  -4.492  0.944E+00  0.280E+00  0.310E+00  0.355E+00
  -4.392  0.100E+01  0.287E+00  0.325E+00  0.391E+00
  -4.292  0.951E+00  0.272E+00  0.302E+00  0.376E+00
  -4.192  0.810E+00  0.234E+00  0.255E+00  0.322E+00
  -4.092  0.662E+00  0.191E+00  0.210E+00  0.261E+00
  -3.992  0.569E+00  0.163E+00  0.185E+00  0.222E+00
  -3.892  0.542E+00  0.152E+00  0.182E+00  0.208E+00
  -3.792  0.549E+00  0.152E+00  0.189E+00  0.208E+00
  -3.692  0.553E+00  0.153E+00  0.193E+00  0.207E+00
  -3.592  0.540E+00  0.152E+00  0.190E+00  0.199E+00
  -3.492  0.524E+00  0.150E+00  0.186E+00  0.188E+00
  -3.392  0.522E+00  0.150E+00  0.190E+00  0.182E+00
  -3.292  0.538E+00  0.152E+00  0.203E+00  0.183E+00
  -3.192  0.555E+00  0.152E+00  0.216E+00  0.187E+00
  -3.092  0.554E+00  0.149E+00  0.216E+00  0.189E+00
  -2.992  0.541E+00  0.150E+00  0.203E+00  0.188E+00
  -2.892  0.549E+00  0.172E+00  0.187E+00  0.190E+00
  -2.792  0.602E+00  0.220E+00  0.181E+00  0.200E+00
  -2.692  0.682E+00  0.275E+00  0.190E+00  0.218E+00
  -2.592  0.746E+00  0.305E+00  0.204E+00  0.237E+00
  -2.492  0.766E+00  0.297E+00  0.217E+00  0.253E+00
  -2.392  0.761E+00  0.271E+00  0.222E+00  0.268E+00
  -2.292  0.756E+00  0.254E+00  0.220E+00  0.282E+00
  -2.192  0.746E+00  0.250E+00  0.208E+00  0.288E+00
  -2.092  0.698E+00  0.245E+00  0.182E+00  0.271E+00
  -1.992  0.599E+00  0.224E+00  0.148E+00  0.227E+00
  -1.892  0.476E+00  0.192E+00  0.113E+00  0.171E+00
  -1.792  0.371E+00  0.161E+00  0.864E-01  0.123E+00
  -1.692  0.311E+00  0.147E+00  0.700E-01  0.939E-01
  -1.592  0.296E+00  0.154E+00  0.616E-01  0.805E-01
  -1.492  0.310E+00  0.178E+00  0.575E-01  0.741E-01
  -1.392  0.324E+00  0.202E+00  0.544E-01  0.683E-01
  -1.292  0.311E+00  0.201E+00  0.501E-01  0.602E-01
  -1.192  0.257E+00  0.165E+00  0.428E-01  0.492E-01
  -1.092  0.177E+00  0.109E+00  0.324E-01  0.358E-01
  -0.992  0.996E-01  0.566E-01  0.207E-01  0.223E-01
  -0.892  0.452E-01  0.228E-01  0.109E-01  0.115E-01
  -0.792  0.165E-01  0.713E-02  0.457E-02  0.477E-02
  -0.692  0.480E-02  0.172E-02  0.152E-02  0.157E-02
  -0.592  0.111E-02  0.318E-03  0.393E-03  0.404E-03
  -0.492  0.205E-03  0.453E-04  0.790E-04  0.808E-04
  -0.392  0.297E-04  0.495E-05  0.123E-04  0.125E-04
  -0.292  0.338E-05  0.415E-06  0.147E-05  0.150E-05
  -0.192  0.306E-06  0.287E-07  0.137E-06  0.140E-06
  -0.092  0.125E-06  0.353E-07  0.394E-07  0.504E-07
   0.008  0.137E-05  0.442E-06  0.391E-06  0.538E-06
   0.108  0.138E-04  0.442E-05  0.393E-05  0.547E-05
   0.208  0.107E-03  0.340E-04  0.305E-04  0.428E-04
   0.308  0.643E-03  0.202E-03  0.182E-03  0.259E-03
   0.408  0.298E-02  0.930E-03  0.844E-03  0.121E-02
   0.508  0.108E-01  0.333E-02  0.305E-02  0.440E-02
   0.608  0.305E-01  0.932E-02  0.870E-02  0.125E-01
   0.708  0.689E-01  0.207E-01  0.199E-01  0.283E-01
   0.808  0.126E+00  0.372E-01  0.374E-01  0.515E-01
   0.908  0.194E+00  0.555E-01  0.601E-01  0.781E-01
   1.008  0.259E+00  0.714E-01  0.852E-01  0.103E+00
   1.108  0.317E+00  0.821E-01  0.110E+00  0.125E+00
   1.208  0.367E+00  0.880E-01  0.133E+00  0.147E+00
   1.308  0.419E+00  0.915E-01  0.154E+00  0.174E+00
   1.408  0.484E+00  0.968E-01  0.179E+00  0.208E+00
   1.508  0.571E+00  0.108E+00  0.215E+00  0.248E+00
   1.608  0.681E+00  0.124E+00  0.267E+00  0.290E+00
   1.708  0.808E+00  0.144E+00  0.329E+00  0.334E+00
   1.808  0.941E+00  0.164E+00  0.396E+00  0.381E+00
   1.908  0.106E+01  0.181E+00  0.456E+00  0.427E+00
   2.008  0.115E+01  0.191E+00  0.496E+00  0.459E+00
   2.108  0.115E+01  0.188E+00  0.498E+00  0.463E+00
   2.208  0.105E+01  0.169E+00  0.453E+00  0.425E+00
   2.308  0.855E+00  0.137E+00  0.367E+00  0.351E+00
   2.408  0.628E+00  0.101E+00  0.266E+00  0.260E+00
   2.508  0.432E+00  0.736E-01  0.178E+00  0.180E+00
   2.608  0.304E+00  0.577E-01  0.120E+00  0.127E+00
   2.708  0.240E+00  0.505E-01  0.898E-01  0.994E-01
   2.808  0.214E+00  0.464E-01  0.779E-01  0.894E-01
   2.908  0.203E+00  0.416E-01  0.742E-01  0.875E-01
   3.008  0.197E+00  0.352E-01  0.729E-01  0.888E-01
   3.108  0.193E+00  0.290E-01  0.720E-01  0.923E-01
   3.208  0.196E+00  0.255E-01  0.721E-01  0.988E-01
   3.308  0.210E+00  0.255E-01  0.745E-01  0.110E+00
   3.408  0.235E+00  0.280E-01  0.797E-01  0.127E+00
   3.508  0.265E+00  0.316E-01  0.863E-01  0.147E+00
   3.608  0.285E+00  0.359E-01  0.906E-01  0.158E+00
   3.708  0.280E+00  0.411E-01  0.881E-01  0.151E+00
   3.808  0.248E+00  0.477E-01  0.771E-01  0.123E+00
   3.908  0.199E+00  0.557E-01  0.604E-01  0.831E-01
   4.008  0.156E+00  0.660E-01  0.430E-01  0.470E-01
   4.108  0.133E+00  0.815E-01  0.286E-01  0.231E-01
   4.208  0.137E+00  0.107E+00  0.183E-01  0.108E-01
   4.308  0.162E+00  0.145E+00  0.116E-01  0.559E-02
   4.408  0.197E+00  0.186E+00  0.748E-02  0.355E-02
   4.508  0.219E+00  0.211E+00  0.511E-02  0.281E-02
   4.608  0.213E+00  0.206E+00  0.381E-02  0.257E-02
   4.708  0.181E+00  0.175E+00  0.311E-02  0.247E-02
   4.808  0.141E+00  0.136E+00  0.276E-02  0.241E-02
   4.908  0.110E+00  0.105E+00  0.264E-02  0.237E-02
   5.008  0.941E-01  0.889E-01  0.274E-02  0.241E-02
   5.108  0.900E-01  0.844E-01  0.303E-02  0.255E-02
   5.208  0.893E-01  0.830E-01  0.345E-02  0.282E-02
   5.308  0.864E-01  0.793E-01  0.391E-02  0.316E-02
   5.408  0.804E-01  0.725E-01  0.437E-02  0.352E-02
   5.508  0.736E-01  0.649E-01  0.478E-02  0.386E-02
   5.608  0.682E-01  0.589E-01  0.513E-02  0.413E-02
   5.708  0.647E-01  0.549E-01  0.539E-02  0.432E-02
   5.808  0.627E-01  0.527E-01  0.557E-02  0.449E-02
   5.908  0.620E-01  0.515E-01  0.573E-02  0.474E-02
   6.008  0.623E-01  0.511E-01  0.594E-02  0.518E-02
   6.108  0.633E-01  0.512E-01  0.622E-02  0.583E-02
   6.208  0.641E-01  0.511E-01  0.650E-02  0.648E-02
   6.308  0.637E-01  0.500E-01  0.673E-02  0.690E-02
   6.408  0.621E-01  0.482E-01  0.693E-02  0.700E-02
   6.508  0.603E-01  0.462E-01  0.714E-02  0.690E-02
   6.608  0.584E-01  0.443E-01  0.737E-02  0.674E-02
   6.708  0.553E-01  0.412E-01  0.749E-02  0.658E-02
   6.808  0.496E-01  0.357E-01  0.738E-02  0.645E-02
   6.908  0.419E-01  0.286E-01  0.699E-02  0.635E-02
   7.008  0.348E-01  0.220E-01  0.643E-02  0.635E-02
   7.108  0.305E-01  0.180E-01  0.593E-02  0.657E-02
   7.208  0.296E-01  0.167E-01  0.571E-02  0.710E-02
   7.308  0.310E-01  0.171E-01  0.593E-02  0.794E-02
   7.408  0.333E-01  0.179E-01  0.654E-02  0.883E-02
   7.508  0.354E-01  0.187E-01  0.727E-02  0.947E-02
   7.608  0.367E-01  0.191E-01  0.780E-02  0.972E-02
   7.708  0.373E-01  0.194E-01  0.809E-02  0.976E-02
   7.808  0.384E-01  0.199E-01  0.849E-02  0.995E-02
   7.908  0.413E-01  0.212E-01  0.955E-02  0.106E-01
   8.008  0.472E-01  0.238E-01  0.118E-01  0.117E-01
   8.108  0.556E-01  0.270E-01  0.152E-01  0.133E-01
   8.208  0.636E-01  0.294E-01  0.191E-01  0.151E-01
   8.308  0.680E-01  0.294E-01  0.222E-01  0.165E-01
   8.408  0.682E-01  0.273E-01  0.238E-01  0.171E-01
   8.508  0.665E-01  0.253E-01  0.242E-01  0.170E-01
   8.608  0.652E-01  0.246E-01  0.241E-01  0.165E-01
   8.708  0.644E-01  0.245E-01  0.238E-01  0.160E-01
   8.808  0.623E-01  0.235E-01  0.232E-01  0.157E-01
   8.908  0.585E-01  0.206E-01  0.225E-01  0.155E-01
   9.008  0.540E-01  0.168E-01  0.217E-01  0.154E-01
   9.108  0.505E-01  0.139E-01  0.210E-01  0.156E-01
   9.208  0.485E-01  0.125E-01  0.202E-01  0.157E-01
   9.308  0.472E-01  0.123E-01  0.193E-01  0.157E-01
   9.408  0.457E-01  0.124E-01  0.180E-01  0.153E-01
   9.508  0.441E-01  0.124E-01  0.167E-01  0.150E-01
   9.608  0.426E-01  0.120E-01  0.157E-01  0.149E-01
   9.708  0.418E-01  0.116E-01  0.150E-01  0.152E-01
   9.808  0.418E-01  0.115E-01  0.147E-01  0.156E-01
   9.908  0.426E-01  0.117E-01  0.148E-01  0.161E-01
  10.008  0.449E-01  0.123E-01  0.155E-01  0.171E-01
  10.108  0.496E-01  0.133E-01  0.173E-01  0.191E-01
  10.208  0.568E-01  0.148E-01  0.200E-01  0.221E-01
  10.308  0.651E-01  0.167E-01  0.232E-01  0.252E-01
  10.408  0.725E-01  0.189E-01  0.262E-01  0.274E-01
  10.508  0.773E-01  0.207E-01  0.286E-01  0.280E-01
  10.608  0.794E-01  0.218E-01  0.304E-01  0.272E-01
  10.708  0.796E-01  0.220E-01  0.318E-01  0.258E-01
  10.808  0.791E-01  0.219E-01  0.328E-01  0.245E-01
  10.908  0.795E-01  0.223E-01  0.335E-01  0.236E-01
  11.008  0.810E-01  0.233E-01  0.341E-01  0.237E-01
  11.108  0.829E-01  0.243E-01  0.341E-01  0.244E-01
  11.208  0.834E-01  0.246E-01  0.334E-01  0.255E-01
  11.308  0.821E-01  0.237E-01  0.318E-01  0.266E-01
  11.408  0.795E-01  0.221E-01  0.299E-01  0.275E-01
  11.508  0.774E-01  0.209E-01  0.279E-01  0.285E-01
  11.608  0.772E-01  0.209E-01  0.265E-01  0.299E-01
  11.708  0.798E-01  0.219E-01  0.259E-01  0.320E-01
  11.808  0.841E-01  0.233E-01  0.260E-01  0.348E-01
  11.908  0.879E-01  0.243E-01  0.265E-01  0.371E-01
  12.008  0.886E-01  0.241E-01  0.266E-01  0.379E-01
  12.108  0.849E-01  0.224E-01  0.258E-01  0.366E-01
  12.208  0.774E-01  0.195E-01  0.239E-01  0.339E-01
  12.308  0.686E-01  0.162E-01  0.217E-01  0.307E-01
  12.408  0.611E-01  0.137E-01  0.198E-01  0.276E-01
  12.508  0.559E-01  0.126E-01  0.186E-01  0.248E-01
  12.608  0.519E-01  0.129E-01  0.173E-01  0.217E-01
  12.708  0.480E-01  0.141E-01  0.157E-01  0.183E-01
  12.808  0.437E-01  0.151E-01  0.137E-01  0.149E-01
  12.908  0.391E-01  0.151E-01  0.117E-01  0.122E-01
  13.008  0.344E-01  0.137E-01  0.103E-01  0.103E-01
  13.108  0.305E-01  0.114E-01  0.990E-02  0.920E-02
  13.208  0.287E-01  0.921E-02  0.108E-01  0.872E-02
  13.308  0.297E-01  0.789E-02  0.129E-01  0.888E-02
  13.408  0.326E-01  0.754E-02  0.156E-01  0.948E-02
  13.508  0.354E-01  0.775E-02  0.176E-01  0.101E-01
  13.608  0.366E-01  0.803E-02  0.181E-01  0.104E-01
  13.708  0.355E-01  0.813E-02  0.170E-01  0.104E-01
  13.808  0.329E-01  0.804E-02  0.149E-01  0.996E-02
  13.908  0.298E-01  0.797E-02  0.125E-01  0.931E-02
  14.008  0.274E-01  0.817E-02  0.106E-01  0.864E-02
  14.108  0.262E-01  0.863E-02  0.944E-02  0.815E-02
  14.208  0.257E-01  0.897E-02  0.888E-02  0.789E-02
  14.308  0.249E-01  0.876E-02  0.841E-02  0.771E-02
  14.408  0.232E-01  0.794E-02  0.778E-02  0.750E-02
  14.508  0.214E-01  0.691E-02  0.724E-02  0.728E-02
  14.608  0.205E-01  0.629E-02  0.713E-02  0.711E-02
  14.708  0.211E-01  0.651E-02  0.759E-02  0.699E-02
  14.808  0.227E-01  0.751E-02  0.835E-02  0.683E-02
  14.908  0.242E-01  0.867E-02  0.898E-02  0.659E-02
  15.008  0.247E-01  0.923E-02  0.915E-02  0.630E-02
  15.108  0.236E-01  0.882E-02  0.876E-02  0.599E-02
  15.208  0.212E-01  0.765E-02  0.795E-02  0.561E-02
  15.308  0.184E-01  0.622E-02  0.704E-02  0.513E-02
  15.408  0.160E-01  0.499E-02  0.632E-02  0.465E-02
  15.508  0.145E-01  0.426E-02  0.591E-02  0.433E-02
  15.608  0.140E-01  0.409E-02  0.572E-02  0.419E-02
  15.708  0.140E-01  0.428E-02  0.561E-02  0.413E-02
  15.808  0.142E-01  0.453E-02  0.563E-02  0.405E-02
  15.908  0.145E-01  0.459E-02  0.590E-02  0.401E-02
  16.008  0.148E-01  0.442E-02  0.639E-02  0.403E-02
  16.108  0.152E-01  0.419E-02  0.689E-02  0.410E-02
  16.208  0.154E-01  0.406E-02  0.718E-02  0.417E-02
  16.308  0.155E-01  0.410E-02  0.719E-02  0.420E-02
  16.408  0.155E-01  0.423E-02  0.705E-02  0.420E-02
  16.508  0.154E-01  0.436E-02  0.686E-02  0.421E-02
  16.608  0.153E-01  0.442E-02  0.663E-02  0.425E-02
  16.708  0.149E-01  0.440E-02  0.624E-02  0.424E-02
  16.808  0.142E-01  0.442E-02  0.566E-02  0.411E-02
  16.908  0.136E-01  0.470E-02  0.501E-02  0.385E-02
  17.008  0.133E-01  0.527E-02  0.448E-02  0.354E-02
  17.108  0.133E-01  0.583E-02  0.418E-02  0.329E-02
  17.208  0.133E-01  0.612E-02  0.403E-02  0.316E-02
  17.308  0.134E-01  0.625E-02  0.394E-02  0.317E-02
  17.408  0.138E-01  0.660E-02  0.390E-02  0.334E-02
  17.508  0.148E-01  0.724E-02  0.392E-02  0.367E-02
  17.608  0.156E-01  0.775E-02  0.392E-02  0.398E-02
  17.708  0.154E-01  0.758E-02  0.376E-02  0.407E-02
  17.808  0.139E-01  0.658E-02  0.344E-02  0.385E-02
  17.908  0.117E-01  0.517E-02  0.306E-02  0.346E-02
  18.008  0.984E-02  0.404E-02  0.273E-02  0.308E-02
  18.108  0.891E-02  0.371E-02  0.247E-02  0.273E-02
  18.208  0.901E-02  0.436E-02  0.225E-02  0.239E-02
  18.308  0.991E-02  0.576E-02  0.209E-02  0.206E-02
  18.408  0.111E-01  0.722E-02  0.208E-02  0.181E-02
  18.508  0.120E-01  0.800E-02  0.231E-02  0.172E-02
  18.608  0.124E-01  0.785E-02  0.277E-02  0.178E-02
  18.708  0.125E-01  0.723E-02  0.336E-02  0.195E-02
  18.808  0.130E-01  0.679E-02  0.398E-02  0.220E-02
  18.908  0.141E-01  0.692E-02  0.464E-02  0.254E-02
  19.008  0.163E-01  0.772E-02  0.551E-02  0.307E-02
  19.108  0.195E-01  0.904E-02  0.664E-02  0.381E-02
  19.208  0.225E-01  0.103E-01  0.762E-02  0.458E-02
  19.308  0.234E-01  0.106E-01  0.783E-02  0.498E-02
  19.408  0.213E-01  0.943E-02  0.703E-02  0.479E-02
  19.508  0.170E-01  0.719E-02  0.562E-02  0.414E-02
  19.608  0.125E-01  0.488E-02  0.424E-02  0.339E-02
  19.708  0.932E-02  0.318E-02  0.334E-02  0.281E-02
  19.808  0.771E-02  0.226E-02  0.299E-02  0.246E-02
  19.908  0.728E-02  0.199E-02  0.303E-02  0.226E-02
  20.008  0.745E-02  0.217E-02  0.316E-02  0.212E-02
  20.108  0.774E-02  0.259E-02  0.316E-02  0.199E-02
  20.208  0.796E-02  0.308E-02  0.298E-02  0.190E-02
  20.308  0.811E-02  0.353E-02  0.271E-02  0.188E-02
  20.408  0.825E-02  0.389E-02  0.245E-02  0.191E-02
  20.508  0.839E-02  0.412E-02  0.227E-02  0.200E-02
  20.608  0.844E-02  0.414E-02  0.218E-02  0.213E-02
  20.708  0.830E-02  0.389E-02  0.215E-02  0.226E-02
  20.808  0.790E-02  0.340E-02  0.215E-02  0.235E-02
  20.908  0.731E-02  0.280E-02  0.214E-02  0.238E-02
  21.008  0.672E-02  0.229E-02  0.210E-02  0.233E-02
  21.108  0.631E-02  0.199E-02  0.208E-02  0.224E-02
  21.208  0.614E-02  0.187E-02  0.211E-02  0.216E-02
  21.308  0.619E-02  0.184E-02  0.219E-02  0.216E-02
  21.408  0.637E-02  0.181E-02  0.234E-02  0.222E-02
  21.508  0.666E-02  0.179E-02  0.254E-02  0.233E-02
  21.608  0.705E-02  0.181E-02  0.280E-02  0.243E-02
  21.708  0.753E-02  0.195E-02  0.308E-02  0.250E-02
  21.808  0.810E-02  0.224E-02  0.330E-02  0.256E-02
  21.908  0.878E-02  0.265E-02  0.344E-02  0.268E-02
  22.008  0.941E-02  0.303E-02  0.349E-02  0.288E-02
  22.108  0.964E-02  0.322E-02  0.341E-02  0.302E-02
  22.208  0.924E-02  0.309E-02  0.317E-02  0.298E-02
  22.308  0.837E-02  0.275E-02  0.283E-02  0.279E-02
  22.408  0.753E-02  0.240E-02  0.254E-02  0.260E-02
  22.508  0.712E-02  0.222E-02  0.236E-02  0.253E-02
  22.608  0.717E-02  0.229E-02  0.232E-02  0.256E-02
  22.708  0.743E-02  0.250E-02  0.233E-02  0.259E-02
  22.808  0.750E-02  0.268E-02  0.231E-02  0.251E-02
  22.908  0.712E-02  0.268E-02  0.216E-02  0.228E-02
  23.008  0.633E-02  0.247E-02  0.192E-02  0.194E-02
  23.108  0.543E-02  0.212E-02  0.169E-02  0.162E-02
  23.208  0.477E-02  0.178E-02  0.156E-02  0.143E-02
  23.308  0.455E-02  0.158E-02  0.157E-02  0.139E-02
  23.408  0.476E-02  0.156E-02  0.169E-02  0.151E-02
  23.508  0.521E-02  0.164E-02  0.186E-02  0.171E-02
  23.608  0.573E-02  0.172E-02  0.205E-02  0.195E-02
  23.708  0.619E-02  0.176E-02  0.223E-02  0.219E-02
  23.808  0.660E-02  0.182E-02  0.237E-02  0.241E-02
  23.908  0.700E-02  0.194E-02  0.245E-02  0.261E-02
  24.008  0.740E-02  0.213E-02  0.245E-02  0.282E-02
  24.108  0.770E-02  0.228E-02  0.240E-02  0.301E-02
  24.208  0.782E-02  0.230E-02  0.235E-02  0.317E-02
  24.308  0.776E-02  0.217E-02  0.235E-02  0.324E-02
  24.408  0.764E-02  0.200E-02  0.241E-02  0.324E-02
  24.508  0.757E-02  0.187E-02  0.251E-02  0.319E-02
  24.608  0.752E-02  0.183E-02  0.259E-02  0.309E-02
  24.708  0.740E-02  0.187E-02  0.258E-02  0.295E-02
  24.808  0.718E-02  0.197E-02  0.246E-02  0.276E-02
  24.908  0.696E-02  0.208E-02  0.232E-02  0.256E-02
  25.008  0.687E-02  0.216E-02  0.226E-02  0.245E-02
  25.108  0.691E-02  0.216E-02  0.230E-02  0.244E-02
  25.208  0.689E-02  0.203E-02  0.238E-02  0.248E-02
  25.308  0.669E-02  0.181E-02  0.239E-02  0.249E-02
  25.408  0.635E-02  0.155E-02  0.231E-02  0.249E-02
  25.508  0.605E-02  0.133E-02  0.221E-02  0.251E-02
  25.608  0.602E-02  0.122E-02  0.217E-02  0.263E-02
  25.708  0.631E-02  0.123E-02  0.227E-02  0.281E-02
  25.808  0.672E-02  0.132E-02  0.243E-02  0.297E-02
  25.908  0.693E-02  0.145E-02  0.251E-02  0.297E-02
  26.008  0.670E-02  0.158E-02  0.239E-02  0.273E-02
  26.108  0.607E-02  0.168E-02  0.208E-02  0.231E-02
  26.208  0.528E-02  0.173E-02  0.169E-02  0.185E-02
  26.308  0.458E-02  0.172E-02  0.137E-02  0.148E-02
  26.408  0.410E-02  0.165E-02  0.119E-02  0.126E-02
  26.508  0.384E-02  0.154E-02  0.114E-02  0.116E-02
  26.608  0.378E-02  0.145E-02  0.118E-02  0.115E-02
  26.708  0.387E-02  0.142E-02  0.126E-02  0.119E-02
  26.808  0.407E-02  0.144E-02  0.136E-02  0.127E-02
  26.908  0.437E-02  0.149E-02  0.148E-02  0.140E-02
  27.008  0.478E-02  0.155E-02  0.166E-02  0.157E-02
  27.108  0.518E-02  0.157E-02  0.184E-02  0.177E-02
  27.208  0.538E-02  0.154E-02  0.195E-02  0.189E-02
  27.308  0.518E-02  0.142E-02  0.188E-02  0.187E-02
  27.408  0.463E-02  0.125E-02  0.166E-02  0.171E-02
  27.508  0.404E-02  0.111E-02  0.143E-02  0.150E-02
  27.608  0.379E-02  0.108E-02  0.135E-02  0.136E-02
  27.708  0.404E-02  0.120E-02  0.147E-02  0.137E-02
  27.808  0.462E-02  0.139E-02  0.173E-02  0.150E-02
  27.908  0.512E-02  0.153E-02  0.194E-02  0.164E-02
  28.008  0.519E-02  0.153E-02  0.198E-02  0.168E-02
  28.108  0.485E-02  0.140E-02  0.186E-02  0.159E-02
  28.208  0.436E-02  0.121E-02  0.167E-02  0.147E-02
  28.308  0.397E-02  0.104E-02  0.154E-02  0.139E-02
  28.408  0.377E-02  0.930E-03  0.147E-02  0.137E-02
  28.508  0.367E-02  0.861E-03  0.143E-02  0.138E-02
  28.608  0.358E-02  0.832E-03  0.138E-02  0.136E-02
  28.708  0.347E-02  0.838E-03  0.130E-02  0.134E-02
  28.808  0.344E-02  0.877E-03  0.122E-02  0.134E-02
  28.908  0.355E-02  0.940E-03  0.120E-02  0.141E-02
  29.008  0.383E-02  0.101E-02  0.127E-02  0.156E-02
  29.108  0.422E-02  0.108E-02  0.140E-02  0.173E-02
  29.208  0.459E-02  0.114E-02  0.157E-02  0.188E-02
  29.308  0.488E-02  0.118E-02  0.172E-02  0.198E-02
  29.408  0.512E-02  0.124E-02  0.182E-02  0.206E-02
  29.508  0.534E-02  0.133E-02  0.187E-02  0.214E-02
  29.608  0.552E-02  0.143E-02  0.189E-02  0.220E-02
  29.708  0.561E-02  0.149E-02  0.191E-02  0.221E-02
  29.808  0.556E-02  0.149E-02  0.192E-02  0.214E-02
  29.908  0.536E-02  0.143E-02  0.192E-02  0.201E-02
  30.008  0.505E-02  0.133E-02  0.187E-02  0.185E-02
  30.108  0.465E-02  0.120E-02  0.178E-02  0.167E-02
  30.208  0.423E-02  0.108E-02  0.165E-02  0.149E-02
  30.308  0.386E-02  0.101E-02  0.152E-02  0.133E-02
  30.408  0.369E-02  0.104E-02  0.142E-02  0.123E-02
  30.508  0.379E-02  0.117E-02  0.139E-02  0.123E-02
  30.608  0.414E-02  0.136E-02  0.145E-02  0.133E-02
  30.708  0.462E-02  0.154E-02  0.157E-02  0.151E-02
  30.808  0.510E-02  0.165E-02  0.174E-02  0.170E-02
  30.908  0.547E-02  0.169E-02  0.194E-02  0.184E-02
  31.008  0.570E-02  0.166E-02  0.214E-02  0.190E-02
  31.108  0.574E-02  0.158E-02  0.227E-02  0.189E-02
  31.208  0.557E-02  0.149E-02  0.227E-02  0.181E-02
  31.308  0.524E-02  0.142E-02  0.213E-02  0.169E-02
  31.408  0.487E-02  0.140E-02  0.191E-02  0.156E-02
  31.508  0.460E-02  0.143E-02  0.173E-02  0.145E-02
  31.608  0.446E-02  0.148E-02  0.159E-02  0.138E-02
  31.708  0.441E-02  0.153E-02  0.151E-02  0.136E-02
  31.808  0.440E-02  0.156E-02  0.147E-02  0.136E-02
  31.908  0.441E-02  0.155E-02  0.149E-02  0.137E-02
  32.008  0.443E-02  0.149E-02  0.157E-02  0.137E-02
  32.108  0.445E-02  0.140E-02  0.171E-02  0.135E-02
  32.208  0.447E-02  0.131E-02  0.185E-02  0.131E-02
  32.308  0.444E-02  0.124E-02  0.195E-02  0.125E-02
  32.408  0.431E-02  0.120E-02  0.194E-02  0.117E-02
  32.508  0.408E-02  0.116E-02  0.183E-02  0.109E-02
  32.608  0.382E-02  0.112E-02  0.166E-02  0.103E-02
  32.708  0.369E-02  0.110E-02  0.155E-02  0.103E-02
  32.808  0.376E-02  0.112E-02  0.154E-02  0.109E-02
  32.908  0.396E-02  0.118E-02  0.159E-02  0.119E-02
  33.008  0.410E-02  0.124E-02  0.161E-02  0.126E-02
  33.108  0.410E-02  0.128E-02  0.154E-02  0.128E-02
  33.208  0.401E-02  0.131E-02  0.143E-02  0.127E-02
  33.308  0.399E-02  0.133E-02  0.138E-02  0.129E-02
  33.408  0.417E-02  0.135E-02  0.143E-02  0.138E-02
  33.508  0.449E-02  0.138E-02  0.158E-02  0.152E-02
  33.608  0.476E-02  0.141E-02  0.171E-02  0.164E-02
  33.708  0.484E-02  0.141E-02  0.176E-02  0.167E-02
  33.808  0.472E-02  0.139E-02  0.170E-02  0.163E-02
  33.908  0.450E-02  0.134E-02  0.160E-02  0.156E-02
  34.008  0.425E-02  0.125E-02  0.150E-02  0.150E-02
  34.108  0.398E-02  0.114E-02  0.141E-02  0.143E-02
  34.208  0.371E-02  0.104E-02  0.132E-02  0.135E-02
  34.308  0.347E-02  0.956E-03  0.125E-02  0.126E-02
  34.408  0.331E-02  0.914E-03  0.120E-02  0.120E-02
  34.508  0.323E-02  0.898E-03  0.117E-02  0.116E-02
  34.608  0.323E-02  0.897E-03  0.117E-02  0.117E-02
  34.708  0.334E-02  0.912E-03  0.122E-02  0.121E-02
  34.808  0.358E-02  0.958E-03  0.131E-02  0.131E-02
  34.908  0.390E-02  0.103E-02  0.145E-02  0.142E-02
  35.008  0.420E-02  0.110E-02  0.159E-02  0.151E-02
  35.108  0.439E-02  0.115E-02  0.170E-02  0.155E-02
  35.208  0.441E-02  0.115E-02  0.173E-02  0.153E-02
  35.308  0.426E-02  0.113E-02  0.165E-02  0.147E-02
  35.408  0.400E-02  0.110E-02  0.149E-02  0.141E-02
  35.508  0.372E-02  0.104E-02  0.131E-02  0.136E-02
  35.608  0.344E-02  0.978E-03  0.116E-02  0.130E-02
  35.708  0.319E-02  0.902E-03  0.106E-02  0.122E-02
  35.808  0.297E-02  0.835E-03  0.101E-02  0.113E-02
  35.908  0.282E-02  0.798E-03  0.979E-03  0.104E-02
  36.008  0.276E-02  0.801E-03  0.969E-03  0.995E-03
  36.108  0.280E-02  0.835E-03  0.981E-03  0.984E-03
  36.208  0.292E-02  0.895E-03  0.102E-02  0.100E-02
  36.308  0.311E-02  0.979E-03  0.109E-02  0.104E-02
  36.408  0.333E-02  0.107E-02  0.116E-02  0.109E-02
  36.508  0.352E-02  0.115E-02  0.121E-02  0.116E-02
  36.608  0.363E-02  0.116E-02  0.123E-02  0.123E-02
  36.708  0.362E-02  0.111E-02  0.123E-02  0.129E-02
  36.808  0.350E-02  0.988E-03  0.121E-02  0.130E-02
  36.908  0.328E-02  0.852E-03  0.117E-02  0.125E-02
  37.008  0.302E-02  0.742E-03  0.113E-02  0.115E-02
  37.108  0.287E-02  0.681E-03  0.111E-02  0.108E-02
  37.208  0.290E-02  0.672E-03  0.115E-02  0.108E-02
  37.308  0.309E-02  0.706E-03  0.125E-02  0.113E-02
  37.408  0.331E-02  0.770E-03  0.134E-02  0.120E-02
  37.508  0.346E-02  0.841E-03  0.138E-02  0.124E-02
  37.608  0.346E-02  0.888E-03  0.136E-02  0.121E-02
  37.708  0.333E-02  0.893E-03  0.130E-02  0.114E-02
  37.808  0.312E-02  0.861E-03  0.121E-02  0.105E-02
  37.908  0.286E-02  0.807E-03  0.112E-02  0.937E-03
  38.008  0.257E-02  0.739E-03  0.101E-02  0.826E-03
  38.108  0.227E-02  0.664E-03  0.878E-03  0.726E-03
  38.208  0.201E-02  0.594E-03  0.758E-03  0.656E-03
  38.308  0.186E-02  0.549E-03  0.679E-03  0.633E-03
  38.408  0.184E-02  0.534E-03  0.655E-03  0.651E-03
  38.508  0.187E-02  0.535E-03  0.661E-03  0.677E-03
  38.608  0.187E-02  0.530E-03  0.664E-03  0.677E-03
  38.708  0.180E-02  0.502E-03  0.650E-03  0.644E-03
  38.808  0.168E-02  0.457E-03  0.625E-03  0.601E-03
  38.908  0.160E-02  0.420E-03  0.606E-03  0.578E-03
  39.008  0.160E-02  0.411E-03  0.598E-03  0.587E-03
  39.108  0.166E-02  0.429E-03  0.607E-03  0.627E-03
  39.208  0.177E-02  0.451E-03  0.634E-03  0.685E-03
  39.308  0.187E-02  0.452E-03  0.674E-03  0.740E-03
  39.408  0.192E-02  0.434E-03  0.713E-03  0.770E-03
  39.508  0.191E-02  0.414E-03  0.735E-03  0.762E-03
  39.608  0.185E-02  0.403E-03  0.725E-03  0.718E-03
  39.708  0.171E-02  0.389E-03  0.672E-03  0.651E-03
  39.808  0.152E-02  0.357E-03  0.586E-03  0.578E-03
  39.908  0.132E-02  0.313E-03  0.493E-03  0.514E-03
  40.008  0.116E-02  0.273E-03  0.421E-03  0.467E-03
  40.108  0.107E-02  0.250E-03  0.383E-03  0.434E-03
  40.208  0.104E-02  0.243E-03  0.382E-03  0.414E-03
  40.308  0.106E-02  0.250E-03  0.407E-03  0.400E-03
  40.408  0.109E-02  0.270E-03  0.435E-03  0.386E-03
  40.508  0.110E-02  0.296E-03  0.438E-03  0.362E-03
  40.608  0.105E-02  0.313E-03  0.409E-03  0.328E-03
  40.708  0.964E-03  0.313E-03  0.362E-03  0.289E-03
  40.808  0.880E-03  0.302E-03  0.321E-03  0.257E-03
  40.908  0.830E-03  0.290E-03  0.301E-03  0.239E-03
  41.008  0.807E-03  0.281E-03  0.297E-03  0.229E-03
  41.108  0.777E-03  0.273E-03  0.287E-03  0.217E-03
  41.208  0.708E-03  0.256E-03  0.260E-03  0.192E-03
  41.308  0.607E-03  0.229E-03  0.219E-03  0.159E-03
  41.408  0.500E-03  0.193E-03  0.179E-03  0.128E-03
  41.508  0.401E-03  0.157E-03  0.144E-03  0.999E-04
  41.608  0.309E-03  0.125E-03  0.109E-03  0.751E-04
  41.708  0.228E-03  0.979E-04  0.762E-04  0.538E-04
  41.808  0.163E-03  0.758E-04  0.495E-04  0.378E-04
  41.908  0.114E-03  0.557E-04  0.311E-04  0.268E-04
  42.008  0.738E-04  0.368E-04  0.189E-04  0.181E-04
  42.108  0.419E-04  0.208E-04  0.104E-04  0.107E-04
  42.208  0.198E-04  0.974E-05  0.483E-05  0.519E-05
  42.308  0.746E-05  0.366E-05  0.181E-05  0.199E-05
  42.408  0.222E-05  0.109E-05  0.536E-06  0.591E-06
  42.508  0.512E-06  0.253E-06  0.123E-06  0.136E-06
  42.608  0.917E-07  0.456E-07  0.220E-07  0.241E-07
  42.708  0.126E-07  0.634E-08  0.302E-08  0.327E-08
  42.808  0.134E-08  0.678E-09  0.321E-09  0.342E-09
