# E (eV)   ldos(E)   pdos(E)   
 -16.392  0.109E-04  0.109E-04
 -16.292  0.909E-04  0.909E-04
 -16.192  0.584E-03  0.584E-03
 -16.092  0.289E-02  0.289E-02
 -15.992  0.110E-01  0.110E-01
 -15.892  0.327E-01  0.327E-01
 -15.792  0.757E-01  0.757E-01
 -15.692  0.138E+00  0.138E+00
 -15.592  0.201E+00  0.201E+00
 -15.492  0.240E+00  0.240E+00
 -15.392  0.243E+00  0.243E+00
 -15.292  0.222E+00  0.222E+00
 -15.192  0.193E+00  0.193E+00
 -15.092  0.170E+00  0.170E+00
 -14.992  0.154E+00  0.154E+00
 -14.892  0.145E+00  0.145E+00
 -14.792  0.146E+00  0.146E+00
 -14.692  0.164E+00  0.164E+00
 -14.592  0.210E+00  0.210E+00
 -14.492  0.287E+00  0.287E+00
 -14.392  0.376E+00  0.376E+00
 -14.292  0.446E+00  0.446E+00
 -14.192  0.475E+00  0.475E+00
 -14.092  0.468E+00  0.468E+00
 -13.992  0.452E+00  0.452E+00
 -13.892  0.450E+00  0.450E+00
 -13.792  0.479E+00  0.479E+00
 -13.692  0.544E+00  0.544E+00
 -13.592  0.638E+00  0.638E+00
 -13.492  0.744E+00  0.744E+00
 -13.392  0.836E+00  0.836E+00
 -13.292  0.891E+00  0.891E+00
 -13.192  0.881E+00  0.881E+00
 -13.092  0.790E+00  0.790E+00
 -12.992  0.626E+00  0.626E+00
 -12.892  0.426E+00  0.426E+00
 -12.792  0.243E+00  0.243E+00
 -12.692  0.113E+00  0.113E+00
 -12.592  0.421E-01  0.421E-01
 -12.492  0.124E-01  0.124E-01
 -12.392  0.285E-02  0.285E-02
 -12.292  0.510E-03  0.510E-03
 -12.192  0.705E-04  0.705E-04
 -12.092  0.751E-05  0.751E-05
 -11.992  0.616E-06  0.616E-06
 -11.892  0.388E-07  0.388E-07
 -11.792  0.187E-08  0.187E-08
 -11.692  0.692E-10  0.692E-10
 -11.592  0.194E-11  0.194E-11
 -11.492  0.000E+00  0.000E+00
 -11.392  0.000E+00  0.000E+00
 -11.292  0.000E+00  0.000E+00
 -11.192  0.000E+00  0.000E+00
 -11.092  0.000E+00  0.000E+00
 -10.992  0.000E+00  0.000E+00
 -10.892  0.000E+00  0.000E+00
 -10.792  0.000E+00  0.000E+00
 -10.692  0.000E+00  0.000E+00
 -10.592  0.000E+00  0.000E+00
 -10.492  0.000E+00  0.000E+00
 -10.392  0.000E+00  0.000E+00
 -10.292  0.000E+00  0.000E+00
 -10.192  0.000E+00  0.000E+00
 -10.092  0.000E+00  0.000E+00
  -9.992  0.000E+00  0.000E+00
  -9.892  0.000E+00  0.000E+00
  -9.792  0.000E+00  0.000E+00
  -9.692  0.000E+00  0.000E+00
  -9.592  0.000E+00  0.000E+00
  -9.492  0.000E+00  0.000E+00
  -9.392  0.000E+00  0.000E+00
  -9.292  0.000E+00  0.000E+00
  -9.192  0.000E+00  0.000E+00
  -9.092  0.000E+00  0.000E+00
  -8.992  0.000E+00  0.000E+00
  -8.892  0.000E+00  0.000E+00
  -8.792  0.000E+00  0.000E+00
  -8.692  0.157E-14  0.157E-14
  -8.592  0.698E-13  0.698E-13
  -8.492  0.221E-11  0.221E-11
  -8.392  0.534E-10  0.534E-10
  -8.292  0.991E-09  0.991E-09
  -8.192  0.141E-07  0.141E-07
  -8.092  0.154E-06  0.154E-06
  -7.992  0.130E-05  0.130E-05
  -7.892  0.849E-05  0.849E-05
  -7.792  0.434E-04  0.434E-04
  -7.692  0.176E-03  0.176E-03
  -7.592  0.575E-03  0.575E-03
  -7.492  0.157E-02  0.157E-02
  -7.392  0.365E-02  0.365E-02
  -7.292  0.735E-02  0.735E-02
  -7.192  0.128E-01  0.128E-01
  -7.092  0.190E-01  0.190E-01
  -6.992  0.242E-01  0.242E-01
  -6.892  0.267E-01  0.267E-01
  -6.792  0.268E-01  0.268E-01
  -6.692  0.261E-01  0.261E-01
  -6.592  0.257E-01  0.257E-01
  -6.492  0.253E-01  0.253E-01
  -6.392  0.238E-01  0.238E-01
  -6.292  0.204E-01  0.204E-01
  -6.192  0.158E-01  0.158E-01
  -6.092  0.114E-01  0.114E-01
  -5.992  0.826E-02  0.826E-02
  -5.892  0.689E-02  0.689E-02
  -5.792  0.778E-02  0.778E-02
  -5.692  0.123E-01  0.123E-01
  -5.592  0.220E-01  0.220E-01
  -5.492  0.367E-01  0.367E-01
  -5.392  0.529E-01  0.529E-01
  -5.292  0.659E-01  0.659E-01
  -5.192  0.742E-01  0.742E-01
  -5.092  0.805E-01  0.805E-01
  -4.992  0.873E-01  0.873E-01
  -4.892  0.924E-01  0.924E-01
  -4.792  0.906E-01  0.906E-01
  -4.692  0.792E-01  0.792E-01
  -4.592  0.615E-01  0.615E-01
  -4.492  0.437E-01  0.437E-01
  -4.392  0.299E-01  0.299E-01
  -4.292  0.207E-01  0.207E-01
  -4.192  0.150E-01  0.150E-01
  -4.092  0.115E-01  0.115E-01
  -3.992  0.919E-02  0.919E-02
  -3.892  0.767E-02  0.767E-02
  -3.792  0.693E-02  0.693E-02
  -3.692  0.766E-02  0.766E-02
  -3.592  0.113E-01  0.113E-01
  -3.492  0.197E-01  0.197E-01
  -3.392  0.329E-01  0.329E-01
  -3.292  0.481E-01  0.481E-01
  -3.192  0.600E-01  0.600E-01
  -3.092  0.634E-01  0.634E-01
  -2.992  0.573E-01  0.573E-01
  -2.892  0.456E-01  0.456E-01
  -2.792  0.338E-01  0.338E-01
  -2.692  0.255E-01  0.255E-01
  -2.592  0.210E-01  0.210E-01
  -2.492  0.192E-01  0.192E-01
  -2.392  0.194E-01  0.194E-01
  -2.292  0.206E-01  0.206E-01
  -2.192  0.219E-01  0.219E-01
  -2.092  0.226E-01  0.226E-01
  -1.992  0.221E-01  0.221E-01
  -1.892  0.206E-01  0.206E-01
  -1.792  0.182E-01  0.182E-01
  -1.692  0.159E-01  0.159E-01
  -1.592  0.143E-01  0.143E-01
  -1.492  0.135E-01  0.135E-01
  -1.392  0.127E-01  0.127E-01
  -1.292  0.111E-01  0.111E-01
  -1.192  0.835E-02  0.835E-02
  -1.092  0.516E-02  0.516E-02
  -0.992  0.255E-02  0.255E-02
  -0.892  0.993E-03  0.993E-03
  -0.792  0.302E-03  0.302E-03
  -0.692  0.710E-04  0.710E-04
  -0.592  0.129E-04  0.129E-04
  -0.492  0.181E-05  0.181E-05
  -0.392  0.194E-06  0.194E-06
  -0.292  0.160E-07  0.160E-07
  -0.192  0.111E-08  0.111E-08
  -0.092  0.175E-08  0.175E-08
   0.008  0.231E-07  0.231E-07
   0.108  0.241E-06  0.241E-06
   0.208  0.194E-05  0.194E-05
   0.308  0.120E-04  0.120E-04
   0.408  0.577E-04  0.577E-04
   0.508  0.216E-03  0.216E-03
   0.608  0.639E-03  0.639E-03
   0.708  0.151E-02  0.151E-02
   0.808  0.292E-02  0.292E-02
   0.908  0.478E-02  0.478E-02
   1.008  0.683E-02  0.683E-02
   1.108  0.881E-02  0.881E-02
   1.208  0.109E-01  0.109E-01
   1.308  0.140E-01  0.140E-01
   1.408  0.202E-01  0.202E-01
   1.508  0.307E-01  0.307E-01
   1.608  0.441E-01  0.441E-01
   1.708  0.556E-01  0.556E-01
   1.808  0.604E-01  0.604E-01
   1.908  0.577E-01  0.577E-01
   2.008  0.504E-01  0.504E-01
   2.108  0.417E-01  0.417E-01
   2.208  0.338E-01  0.338E-01
   2.308  0.275E-01  0.275E-01
   2.408  0.236E-01  0.236E-01
   2.508  0.224E-01  0.224E-01
   2.608  0.242E-01  0.242E-01
   2.708  0.287E-01  0.287E-01
   2.808  0.347E-01  0.347E-01
   2.908  0.399E-01  0.399E-01
   3.008  0.409E-01  0.409E-01
   3.108  0.367E-01  0.367E-01
   3.208  0.291E-01  0.291E-01
   3.308  0.217E-01  0.217E-01
   3.408  0.170E-01  0.170E-01
   3.508  0.153E-01  0.153E-01
   3.608  0.156E-01  0.156E-01
   3.708  0.173E-01  0.173E-01
   3.808  0.198E-01  0.198E-01
   3.908  0.227E-01  0.227E-01
   4.008  0.260E-01  0.260E-01
   4.108  0.299E-01  0.299E-01
   4.208  0.356E-01  0.356E-01
   4.308  0.437E-01  0.437E-01
   4.408  0.529E-01  0.529E-01
   4.508  0.593E-01  0.593E-01
   4.608  0.590E-01  0.590E-01
   4.708  0.514E-01  0.514E-01
   4.808  0.398E-01  0.398E-01
   4.908  0.293E-01  0.293E-01
   5.008  0.238E-01  0.238E-01
   5.108  0.253E-01  0.253E-01
   5.208  0.335E-01  0.335E-01
   5.308  0.455E-01  0.455E-01
   5.408  0.557E-01  0.557E-01
   5.508  0.596E-01  0.596E-01
   5.608  0.572E-01  0.572E-01
   5.708  0.519E-01  0.519E-01
   5.808  0.468E-01  0.468E-01
   5.908  0.430E-01  0.430E-01
   6.008  0.403E-01  0.403E-01
   6.108  0.383E-01  0.383E-01
   6.208  0.365E-01  0.365E-01
   6.308  0.348E-01  0.348E-01
   6.408  0.331E-01  0.331E-01
   6.508  0.323E-01  0.323E-01
   6.608  0.333E-01  0.333E-01
   6.708  0.363E-01  0.363E-01
   6.808  0.405E-01  0.405E-01
   6.908  0.448E-01  0.448E-01
   7.008  0.484E-01  0.484E-01
   7.108  0.513E-01  0.513E-01
   7.208  0.539E-01  0.539E-01
   7.308  0.557E-01  0.557E-01
   7.408  0.558E-01  0.558E-01
   7.508  0.534E-01  0.534E-01
   7.608  0.489E-01  0.489E-01
   7.708  0.435E-01  0.435E-01
   7.808  0.389E-01  0.389E-01
   7.908  0.380E-01  0.380E-01
   8.008  0.441E-01  0.441E-01
   8.108  0.574E-01  0.574E-01
   8.208  0.733E-01  0.733E-01
   8.308  0.840E-01  0.840E-01
   8.408  0.850E-01  0.850E-01
   8.508  0.787E-01  0.787E-01
   8.608  0.712E-01  0.712E-01
   8.708  0.670E-01  0.670E-01
   8.808  0.664E-01  0.664E-01
   8.908  0.673E-01  0.673E-01
   9.008  0.667E-01  0.667E-01
   9.108  0.634E-01  0.634E-01
   9.208  0.572E-01  0.572E-01
   9.308  0.488E-01  0.488E-01
   9.408  0.393E-01  0.393E-01
   9.508  0.298E-01  0.298E-01
   9.608  0.219E-01  0.219E-01
   9.708  0.163E-01  0.163E-01
   9.808  0.130E-01  0.130E-01
   9.908  0.114E-01  0.114E-01
  10.008  0.113E-01  0.113E-01
  10.108  0.132E-01  0.132E-01
  10.208  0.174E-01  0.174E-01
  10.308  0.236E-01  0.236E-01
  10.408  0.295E-01  0.295E-01
  10.508  0.328E-01  0.328E-01
  10.608  0.325E-01  0.325E-01
  10.708  0.299E-01  0.299E-01
  10.808  0.274E-01  0.274E-01
  10.908  0.263E-01  0.263E-01
  11.008  0.261E-01  0.261E-01
  11.108  0.255E-01  0.255E-01
  11.208  0.237E-01  0.237E-01
  11.308  0.210E-01  0.210E-01
  11.408  0.186E-01  0.186E-01
  11.508  0.173E-01  0.173E-01
  11.608  0.176E-01  0.176E-01
  11.708  0.188E-01  0.188E-01
  11.808  0.199E-01  0.199E-01
  11.908  0.201E-01  0.201E-01
  12.008  0.191E-01  0.191E-01
  12.108  0.172E-01  0.172E-01
  12.208  0.147E-01  0.147E-01
  12.308  0.120E-01  0.120E-01
  12.408  0.991E-02  0.991E-02
  12.508  0.900E-02  0.900E-02
  12.608  0.942E-02  0.942E-02
  12.708  0.105E-01  0.105E-01
  12.808  0.111E-01  0.111E-01
  12.908  0.108E-01  0.108E-01
  13.008  0.974E-02  0.974E-02
  13.108  0.867E-02  0.867E-02
  13.208  0.811E-02  0.811E-02
  13.308  0.830E-02  0.830E-02
  13.408  0.915E-02  0.915E-02
  13.508  0.102E-01  0.102E-01
  13.608  0.109E-01  0.109E-01
  13.708  0.108E-01  0.108E-01
  13.808  0.103E-01  0.103E-01
  13.908  0.978E-02  0.978E-02
  14.008  0.977E-02  0.977E-02
  14.108  0.104E-01  0.104E-01
  14.208  0.111E-01  0.111E-01
  14.308  0.113E-01  0.113E-01
  14.408  0.104E-01  0.104E-01
  14.508  0.897E-02  0.897E-02
  14.608  0.775E-02  0.775E-02
  14.708  0.752E-02  0.752E-02
  14.808  0.820E-02  0.820E-02
  14.908  0.901E-02  0.901E-02
  15.008  0.920E-02  0.920E-02
  15.108  0.893E-02  0.893E-02
  15.208  0.896E-02  0.896E-02
  15.308  0.974E-02  0.974E-02
  15.408  0.108E-01  0.108E-01
  15.508  0.115E-01  0.115E-01
  15.608  0.115E-01  0.115E-01
  15.708  0.114E-01  0.114E-01
  15.808  0.116E-01  0.116E-01
  15.908  0.117E-01  0.117E-01
  16.008  0.113E-01  0.113E-01
  16.108  0.100E-01  0.100E-01
  16.208  0.854E-02  0.854E-02
  16.308  0.741E-02  0.741E-02
  16.408  0.689E-02  0.689E-02
  16.508  0.694E-02  0.694E-02
  16.608  0.739E-02  0.739E-02
  16.708  0.799E-02  0.799E-02
  16.808  0.845E-02  0.845E-02
  16.908  0.857E-02  0.857E-02
  17.008  0.843E-02  0.843E-02
  17.108  0.820E-02  0.820E-02
  17.208  0.789E-02  0.789E-02
  17.308  0.736E-02  0.736E-02
  17.408  0.664E-02  0.664E-02
  17.508  0.595E-02  0.595E-02
  17.608  0.555E-02  0.555E-02
  17.708  0.546E-02  0.546E-02
  17.808  0.560E-02  0.560E-02
  17.908  0.596E-02  0.596E-02
  18.008  0.670E-02  0.670E-02
  18.108  0.819E-02  0.819E-02
  18.208  0.108E-01  0.108E-01
  18.308  0.142E-01  0.142E-01
  18.408  0.176E-01  0.176E-01
  18.508  0.197E-01  0.197E-01
  18.608  0.202E-01  0.202E-01
  18.708  0.199E-01  0.199E-01
  18.808  0.196E-01  0.196E-01
  18.908  0.195E-01  0.195E-01
  19.008  0.191E-01  0.191E-01
  19.108  0.180E-01  0.180E-01
  19.208  0.163E-01  0.163E-01
  19.308  0.144E-01  0.144E-01
  19.408  0.126E-01  0.126E-01
  19.508  0.112E-01  0.112E-01
  19.608  0.101E-01  0.101E-01
  19.708  0.947E-02  0.947E-02
  19.808  0.916E-02  0.916E-02
  19.908  0.900E-02  0.900E-02
  20.008  0.878E-02  0.878E-02
  20.108  0.849E-02  0.849E-02
  20.208  0.823E-02  0.823E-02
  20.308  0.812E-02  0.812E-02
  20.408  0.812E-02  0.812E-02
  20.508  0.822E-02  0.822E-02
  20.608  0.836E-02  0.836E-02
  20.708  0.847E-02  0.847E-02
  20.808  0.851E-02  0.851E-02
  20.908  0.859E-02  0.859E-02
  21.008  0.883E-02  0.883E-02
  21.108  0.907E-02  0.907E-02
  21.208  0.902E-02  0.902E-02
  21.308  0.853E-02  0.853E-02
  21.408  0.783E-02  0.783E-02
  21.508  0.735E-02  0.735E-02
  21.608  0.729E-02  0.729E-02
  21.708  0.752E-02  0.752E-02
  21.808  0.765E-02  0.765E-02
  21.908  0.739E-02  0.739E-02
  22.008  0.669E-02  0.669E-02
  22.108  0.573E-02  0.573E-02
  22.208  0.470E-02  0.470E-02
  22.308  0.374E-02  0.374E-02
  22.408  0.299E-02  0.299E-02
  22.508  0.252E-02  0.252E-02
  22.608  0.231E-02  0.231E-02
  22.708  0.226E-02  0.226E-02
  22.808  0.228E-02  0.228E-02
  22.908  0.231E-02  0.231E-02
  23.008  0.235E-02  0.235E-02
  23.108  0.241E-02  0.241E-02
  23.208  0.250E-02  0.250E-02
  23.308  0.264E-02  0.264E-02
  23.408  0.281E-02  0.281E-02
  23.508  0.293E-02  0.293E-02
  23.608  0.291E-02  0.291E-02
  23.708  0.271E-02  0.271E-02
  23.808  0.243E-02  0.243E-02
  23.908  0.218E-02  0.218E-02
  24.008  0.205E-02  0.205E-02
  24.108  0.202E-02  0.202E-02
  24.208  0.201E-02  0.201E-02
  24.308  0.200E-02  0.200E-02
  24.408  0.197E-02  0.197E-02
  24.508  0.193E-02  0.193E-02
  24.608  0.194E-02  0.194E-02
  24.708  0.200E-02  0.200E-02
  24.808  0.208E-02  0.208E-02
  24.908  0.214E-02  0.214E-02
  25.008  0.220E-02  0.220E-02
  25.108  0.231E-02  0.231E-02
  25.208  0.246E-02  0.246E-02
  25.308  0.255E-02  0.255E-02
  25.408  0.244E-02  0.244E-02
  25.508  0.214E-02  0.214E-02
  25.608  0.178E-02  0.178E-02
  25.708  0.151E-02  0.151E-02
  25.808  0.141E-02  0.141E-02
  25.908  0.142E-02  0.142E-02
  26.008  0.146E-02  0.146E-02
  26.108  0.151E-02  0.151E-02
  26.208  0.153E-02  0.153E-02
  26.308  0.156E-02  0.156E-02
  26.408  0.162E-02  0.162E-02
  26.508  0.176E-02  0.176E-02
  26.608  0.202E-02  0.202E-02
  26.708  0.234E-02  0.234E-02
  26.808  0.263E-02  0.263E-02
  26.908  0.279E-02  0.279E-02
  27.008  0.280E-02  0.280E-02
  27.108  0.271E-02  0.271E-02
  27.208  0.256E-02  0.256E-02
  27.308  0.238E-02  0.238E-02
  27.408  0.216E-02  0.216E-02
  27.508  0.191E-02  0.191E-02
  27.608  0.169E-02  0.169E-02
  27.708  0.155E-02  0.155E-02
  27.808  0.153E-02  0.153E-02
  27.908  0.160E-02  0.160E-02
  28.008  0.168E-02  0.168E-02
  28.108  0.168E-02  0.168E-02
  28.208  0.161E-02  0.161E-02
  28.308  0.152E-02  0.152E-02
  28.408  0.146E-02  0.146E-02
  28.508  0.143E-02  0.143E-02
  28.608  0.142E-02  0.142E-02
  28.708  0.139E-02  0.139E-02
  28.808  0.135E-02  0.135E-02
  28.908  0.128E-02  0.128E-02
  29.008  0.122E-02  0.122E-02
  29.108  0.121E-02  0.121E-02
  29.208  0.125E-02  0.125E-02
  29.308  0.129E-02  0.129E-02
  29.408  0.130E-02  0.130E-02
  29.508  0.130E-02  0.130E-02
  29.608  0.130E-02  0.130E-02
  29.708  0.131E-02  0.131E-02
  29.808  0.131E-02  0.131E-02
  29.908  0.129E-02  0.129E-02
  30.008  0.127E-02  0.127E-02
  30.108  0.127E-02  0.127E-02
  30.208  0.129E-02  0.129E-02
  30.308  0.133E-02  0.133E-02
  30.408  0.140E-02  0.140E-02
  30.508  0.150E-02  0.150E-02
  30.608  0.160E-02  0.160E-02
  30.708  0.165E-02  0.165E-02
  30.808  0.163E-02  0.163E-02
  30.908  0.157E-02  0.157E-02
  31.008  0.153E-02  0.153E-02
  31.108  0.154E-02  0.154E-02
  31.208  0.157E-02  0.157E-02
  31.308  0.157E-02  0.157E-02
  31.408  0.152E-02  0.152E-02
  31.508  0.146E-02  0.146E-02
  31.608  0.140E-02  0.140E-02
  31.708  0.135E-02  0.135E-02
  31.808  0.129E-02  0.129E-02
  31.908  0.123E-02  0.123E-02
  32.008  0.117E-02  0.117E-02
  32.108  0.112E-02  0.112E-02
  32.208  0.109E-02  0.109E-02
  32.308  0.107E-02  0.107E-02
  32.408  0.103E-02  0.103E-02
  32.508  0.953E-03  0.953E-03
  32.608  0.864E-03  0.864E-03
  32.708  0.793E-03  0.793E-03
  32.808  0.750E-03  0.750E-03
  32.908  0.722E-03  0.722E-03
  33.008  0.691E-03  0.691E-03
  33.108  0.656E-03  0.656E-03
  33.208  0.639E-03  0.639E-03
  33.308  0.661E-03  0.661E-03
  33.408  0.724E-03  0.724E-03
  33.508  0.809E-03  0.809E-03
  33.608  0.898E-03  0.898E-03
  33.708  0.970E-03  0.970E-03
  33.808  0.996E-03  0.996E-03
  33.908  0.957E-03  0.957E-03
  34.008  0.872E-03  0.872E-03
  34.108  0.787E-03  0.787E-03
  34.208  0.728E-03  0.728E-03
  34.308  0.687E-03  0.687E-03
  34.408  0.645E-03  0.645E-03
  34.508  0.601E-03  0.601E-03
  34.608  0.567E-03  0.567E-03
  34.708  0.553E-03  0.553E-03
  34.808  0.559E-03  0.559E-03
  34.908  0.577E-03  0.577E-03
  35.008  0.591E-03  0.591E-03
  35.108  0.583E-03  0.583E-03
  35.208  0.544E-03  0.544E-03
  35.308  0.475E-03  0.475E-03
  35.408  0.394E-03  0.394E-03
  35.508  0.326E-03  0.326E-03
  35.608  0.287E-03  0.287E-03
  35.708  0.276E-03  0.276E-03
  35.808  0.279E-03  0.279E-03
  35.908  0.286E-03  0.286E-03
  36.008  0.294E-03  0.294E-03
  36.108  0.307E-03  0.307E-03
  36.208  0.326E-03  0.326E-03
  36.308  0.345E-03  0.345E-03
  36.408  0.356E-03  0.356E-03
  36.508  0.356E-03  0.356E-03
  36.608  0.346E-03  0.346E-03
  36.708  0.332E-03  0.332E-03
  36.808  0.318E-03  0.318E-03
  36.908  0.311E-03  0.311E-03
  37.008  0.313E-03  0.313E-03
  37.108  0.319E-03  0.319E-03
  37.208  0.322E-03  0.322E-03
  37.308  0.320E-03  0.320E-03
  37.408  0.317E-03  0.317E-03
  37.508  0.315E-03  0.315E-03
  37.608  0.309E-03  0.309E-03
  37.708  0.291E-03  0.291E-03
  37.808  0.260E-03  0.260E-03
  37.908  0.223E-03  0.223E-03
  38.008  0.193E-03  0.193E-03
  38.108  0.184E-03  0.184E-03
  38.208  0.208E-03  0.208E-03
  38.308  0.264E-03  0.264E-03
  38.408  0.330E-03  0.330E-03
  38.508  0.373E-03  0.373E-03
  38.608  0.375E-03  0.375E-03
  38.708  0.342E-03  0.342E-03
  38.808  0.301E-03  0.301E-03
  38.908  0.270E-03  0.270E-03
  39.008  0.259E-03  0.259E-03
  39.108  0.257E-03  0.257E-03
  39.208  0.254E-03  0.254E-03
  39.308  0.248E-03  0.248E-03
  39.408  0.243E-03  0.243E-03
  39.508  0.247E-03  0.247E-03
  39.608  0.252E-03  0.252E-03
  39.708  0.243E-03  0.243E-03
  39.808  0.213E-03  0.213E-03
  39.908  0.169E-03  0.169E-03
  40.008  0.126E-03  0.126E-03
  40.108  0.978E-04  0.978E-04
  40.208  0.871E-04  0.871E-04
  40.308  0.896E-04  0.896E-04
  40.408  0.960E-04  0.960E-04
  40.508  0.971E-04  0.971E-04
  40.608  0.909E-04  0.909E-04
  40.708  0.817E-04  0.817E-04
  40.808  0.736E-04  0.736E-04
  40.908  0.666E-04  0.666E-04
  41.008  0.591E-04  0.591E-04
  41.108  0.509E-04  0.509E-04
  41.208  0.433E-04  0.433E-04
  41.308  0.374E-04  0.374E-04
  41.408  0.329E-04  0.329E-04
  41.508  0.288E-04  0.288E-04
  41.608  0.241E-04  0.241E-04
  41.708  0.185E-04  0.185E-04
  41.808  0.131E-04  0.131E-04
  41.908  0.846E-05  0.846E-05
  42.008  0.492E-05  0.492E-05
  42.108  0.250E-05  0.250E-05
  42.208  0.107E-05  0.107E-05
  42.308  0.377E-06  0.377E-06
  42.408  0.107E-06  0.107E-06
  42.508  0.240E-07  0.240E-07
  42.608  0.422E-08  0.422E-08
  42.708  0.580E-09  0.580E-09
  42.808  0.618E-10  0.618E-10
